PE UV       SUBTECH     SPECTRUM    ASCII       PEDS        4.00        
   -1
Sample16.SampleY.ASC
22/07/11
06:54:47.00
22/07/11
06:54:47.00
Michael Matus
NG11 #68, Schott 50mm x 50mm, 2mm, Some very long description to test the 80 character restriction of JCAMP-DX specification - 1234567890123456789012345678901234567890
250.000000
1
Lambda 1050+
1060L2011032
PerkinElmer UV WinLab 7.1.0.68 / 2.02.11 Lambda 900 UV/VIS/NIR, May 23 2018 11:23:04

0
0
3350/servo 1800.8/servo 860.8/1
0
0
UV/VIS
1
1
1
CommonBeamDepol,RBeamAtt,SBeamAtt,uv/vis/nir detector, TDS WB InGaAs Detector
0
0
0
0
Program
Program
3350/servo 1800.8/servo 860.8/1
3350/0.2 1800.8/0.2 860.8/0.2
3350/0.2 1800.8/0.2 860.8/0.2
0
3350/1.00 1800.8/5.00
 
 
 
0
 
860.8
319.2
1800.8 860.8
Front
25
on
S:100 R:100
 
0
0
0
 
0
 
 
 
0
 
 
0
0
0
0
0
 
 
 
 
0
0


0
0
#HDR
-1
-1
#GR
nm
%T
1.0
0.0
2000.000000
-1.000000
1751
8
56.905109
-0.001860
#DATA
2000.000000	56.074212
1999.000000	56.253906
1998.000000	56.404050
1997.000000	56.489352
1996.000000	56.157209
1995.000000	55.970774
1994.000000	56.197074
1993.000000	56.361493
1992.000000	56.408691
1991.000000	55.984347
1990.000000	55.710486
1989.000000	55.893595
1988.000000	55.965684
1987.000000	56.238287
1986.000000	56.335019
1985.000000	55.836451
1984.000000	56.037660
1983.000000	56.232196
1982.000000	55.723162
1981.000000	55.897668
1980.000000	56.148071
1979.000000	56.159625
1978.000000	55.680098
1977.000000	55.839048
1976.000000	56.076995
1975.000000	56.127361
1974.000000	55.643567
1973.000000	55.745017
1972.000000	55.933088
1971.000000	55.993039
1970.000000	55.940719
1969.000000	55.442860
1968.000000	55.529037
1967.000000	55.612811
1966.000000	55.767409
1965.000000	55.779549
1964.000000	55.758086
1963.000000	55.717763
1962.000000	55.629533
1961.000000	55.541006
1960.000000	55.477582
1959.000000	55.427648
1958.000000	55.367201
1957.000000	55.254512
1956.000000	55.052689
1955.000000	54.895294
1954.000000	54.890799
1953.000000	55.179556
1952.000000	55.326181
1951.000000	55.052750
1950.000000	54.892953
1949.000000	54.762547
1948.000000	54.744050
1947.000000	55.016473
1946.000000	55.048266
1945.000000	54.684912
1944.000000	54.910442
1943.000000	55.007348
1942.000000	54.761739
1941.000000	54.798618
1940.000000	54.354056
1939.000000	54.312187
1938.000000	54.479650
1937.000000	54.744615
1936.000000	54.807619
1935.000000	54.758365
1934.000000	54.493235
1933.000000	54.534657
1932.000000	54.349956
1931.000000	54.536911
1930.000000	54.557967
1929.000000	54.397754
1928.000000	54.208264
1927.000000	54.065187
1926.000000	54.073884
1925.000000	54.444949
1924.000000	55.031524
1923.000000	55.066774
1922.000000	54.650178
1921.000000	54.306295
1920.000000	54.131118
1919.000000	54.277472
1918.000000	54.529350
1917.000000	54.967484
1916.000000	55.228517
1915.000000	54.960967
1914.000000	54.529145
1913.000000	54.080139
1912.000000	53.774291
1911.000000	53.894283
1910.000000	54.753514
1909.000000	55.359343
1908.000000	55.146458
1907.000000	54.500669
1906.000000	54.157398
1905.000000	53.783944
1904.000000	53.519689
1903.000000	54.134809
1902.000000	54.735802
1901.000000	54.722546
1900.000000	54.686114
1899.000000	54.407532
1898.000000	54.242541
1897.000000	54.599812
1896.000000	54.901348
1895.000000	54.997925
1894.000000	54.952282
1893.000000	54.680192
1892.000000	54.138513
1891.000000	53.619724
1890.000000	53.493950
1889.000000	53.748213
1888.000000	54.401551
1887.000000	54.958899
1886.000000	54.739940
1885.000000	54.110659
1884.000000	54.013151
1883.000000	54.078135
1882.000000	53.970269
1881.000000	54.062019
1880.000000	54.305536
1879.000000	54.496960
1878.000000	54.241285
1877.000000	53.787444
1876.000000	53.324403
1875.000000	52.950626
1874.000000	53.053651
1873.000000	53.050480
1872.000000	53.005656
1871.000000	53.381233
1870.000000	53.898105
1869.000000	53.917845
1868.000000	54.144831
1867.000000	54.826578
1866.000000	55.167705
1865.000000	55.284302
1864.000000	55.091292
1863.000000	54.711468
1862.000000	54.301256
1861.000000	53.459218
1860.000000	52.931928
1859.000000	52.965074
1858.000000	53.141332
1857.000000	53.562801
1856.000000	53.755042
1855.000000	53.712496
1854.000000	53.872343
1853.000000	54.090423
1852.000000	53.766316
1851.000000	53.941527
1850.000000	54.058729
1849.000000	53.583650
1848.000000	53.070315
1847.000000	52.438620
1846.000000	52.584428
1845.000000	53.435199
1844.000000	54.689039
1843.000000	55.145983
1842.000000	54.479733
1841.000000	53.219569
1840.000000	51.840648
1839.000000	52.136827
1838.000000	52.897928
1837.000000	53.592659
1836.000000	53.757547
1835.000000	53.879964
1834.000000	53.879513
1833.000000	54.057371
1832.000000	54.392872
1831.000000	53.988290
1830.000000	53.345432
1829.000000	52.738749
1828.000000	52.736819
1827.000000	53.269163
1826.000000	53.584418
1825.000000	54.018219
1824.000000	53.885673
1823.000000	54.056203
1822.000000	53.886456
1821.000000	52.935000
1820.000000	52.500596
1819.000000	52.162722
1818.000000	53.226224
1817.000000	53.951142
1816.000000	54.116748
1815.000000	53.675547
1814.000000	53.311626
1813.000000	53.160401
1812.000000	53.461286
1811.000000	53.172997
1810.000000	53.324981
1809.000000	53.035497
1808.000000	53.467730
1807.000000	53.337782
1806.000000	53.022486
1805.000000	53.216493
1804.000000	53.316484
1803.000000	53.581281
1802.000000	53.259550
1801.000000	52.896515
1800.000000	54.351199
1799.000000	54.342651
1798.000000	54.332234
1797.000000	54.320695
1796.000000	54.310441
1795.000000	54.304681
1794.000000	54.295349
1793.000000	54.284957
1792.000000	54.272482
1791.000000	54.264104
1790.000000	54.252650
1789.000000	54.243637
1788.000000	54.242545
1787.000000	54.233481
1786.000000	54.223808
1785.000000	54.211036
1784.000000	54.205652
1783.000000	54.195541
1782.000000	54.186821
1781.000000	54.176700
1780.000000	54.175068
1779.000000	54.161258
1778.000000	54.153210
1777.000000	54.144611
1776.000000	54.138501
1775.000000	54.134168
1774.000000	54.125024
1773.000000	54.112628
1772.000000	54.100439
1771.000000	54.097133
1770.000000	54.088487
1769.000000	54.080956
1768.000000	54.073388
1767.000000	54.065262
1766.000000	54.059904
1765.000000	54.053791
1764.000000	54.049354
1763.000000	54.039553
1762.000000	54.031842
1761.000000	54.026390
1760.000000	54.016185
1759.000000	54.012249
1758.000000	54.006867
1757.000000	54.001582
1756.000000	53.994720
1755.000000	53.987107
1754.000000	53.979902
1753.000000	53.969266
1752.000000	53.965238
1751.000000	53.957619
1750.000000	53.952412
1749.000000	53.945868
1748.000000	53.937334
1747.000000	53.929660
1746.000000	53.925879
1745.000000	53.922282
1744.000000	53.914031
1743.000000	53.907873
1742.000000	53.903228
1741.000000	53.897553
1740.000000	53.894570
1739.000000	53.890022
1738.000000	53.885663
1737.000000	53.880828
1736.000000	53.873665
1735.000000	53.866912
1734.000000	53.861140
1733.000000	53.858655
1732.000000	53.853420
1731.000000	53.849878
1730.000000	53.847309
1729.000000	53.839153
1728.000000	53.833156
1727.000000	53.828285
1726.000000	53.824026
1725.000000	53.819435
1724.000000	53.814489
1723.000000	53.809936
1722.000000	53.804794
1721.000000	53.800400
1720.000000	53.795462
1719.000000	53.791301
1718.000000	53.788242
1717.000000	53.783510
1716.000000	53.781230
1715.000000	53.777813
1714.000000	53.771255
1713.000000	53.766047
1712.000000	53.763880
1711.000000	53.761696
1710.000000	53.756104
1709.000000	53.751878
1708.000000	53.747041
1707.000000	53.741638
1706.000000	53.737035
1705.000000	53.732125
1704.000000	53.727878
1703.000000	53.724812
1702.000000	53.724431
1701.000000	53.722101
1700.000000	53.717707
1699.000000	53.712564
1698.000000	53.708784
1697.000000	53.704371
1696.000000	53.698485
1695.000000	53.695374
1694.000000	53.692196
1693.000000	53.688295
1692.000000	53.682411
1691.000000	53.675729
1690.000000	53.674499
1689.000000	53.672656
1688.000000	53.668556
1687.000000	53.664521
1686.000000	53.660262
1685.000000	53.654892
1684.000000	53.649140
1683.000000	53.644305
1682.000000	53.640931
1681.000000	53.638798
1680.000000	53.635127
1679.000000	53.632888
1678.000000	53.632479
1677.000000	53.627238
1676.000000	53.621413
1675.000000	53.615155
1674.000000	53.610368
1673.000000	53.607674
1672.000000	53.604304
1671.000000	53.600734
1670.000000	53.599082
1669.000000	53.598547
1668.000000	53.594932
1667.000000	53.590180
1666.000000	53.586722
1665.000000	53.580331
1664.000000	53.575545
1663.000000	53.570209
1662.000000	53.566058
1661.000000	53.561353
1660.000000	53.557948
1659.000000	53.553733
1658.000000	53.547915
1657.000000	53.544503
1656.000000	53.537963
1655.000000	53.532887
1654.000000	53.527478
1653.000000	53.522334
1652.000000	53.518037
1651.000000	53.510345
1650.000000	53.506483
1649.000000	53.501958
1648.000000	53.496644
1647.000000	53.491287
1646.000000	53.485020
1645.000000	53.479655
1644.000000	53.472878
1643.000000	53.467209
1642.000000	53.463372
1641.000000	53.456092
1640.000000	53.450914
1639.000000	53.445455
1638.000000	53.440146
1637.000000	53.433897
1636.000000	53.427412
1635.000000	53.421174
1634.000000	53.413892
1633.000000	53.407129
1632.000000	53.400774
1631.000000	53.392184
1630.000000	53.388036
1629.000000	53.381940
1628.000000	53.375517
1627.000000	53.366611
1626.000000	53.361749
1625.000000	53.354117
1624.000000	53.341500
1623.000000	53.334921
1622.000000	53.328127
1621.000000	53.320791
1620.000000	53.310894
1619.000000	53.304440
1618.000000	53.295249
1617.000000	53.284982
1616.000000	53.274826
1615.000000	53.264071
1614.000000	53.258386
1613.000000	53.247742
1612.000000	53.238205
1611.000000	53.228112
1610.000000	53.218396
1609.000000	53.209910
1608.000000	53.198835
1607.000000	53.189149
1606.000000	53.176713
1605.000000	53.163509
1604.000000	53.153683
1603.000000	53.141317
1602.000000	53.131058
1601.000000	53.118896
1600.000000	53.105622
1599.000000	53.092530
1598.000000	53.083130
1597.000000	53.072332
1596.000000	53.060107
1595.000000	53.049806
1594.000000	53.037580
1593.000000	53.025556
1592.000000	53.011674
1591.000000	53.001034
1590.000000	52.979833
1589.000000	52.966362
1588.000000	52.953081
1587.000000	52.938440
1586.000000	52.924052
1585.000000	52.909475
1584.000000	52.894241
1583.000000	52.877418
1582.000000	52.860869
1581.000000	52.844940
1580.000000	52.826260
1579.000000	52.810325
1578.000000	52.793875
1577.000000	52.780286
1576.000000	52.761961
1575.000000	52.744140
1574.000000	52.724817
1573.000000	52.709293
1572.000000	52.691196
1571.000000	52.673089
1570.000000	52.654148
1569.000000	52.639351
1568.000000	52.615774
1567.000000	52.599010
1566.000000	52.581720
1565.000000	52.563554
1564.000000	52.544256
1563.000000	52.523199
1562.000000	52.501674
1561.000000	52.479419
1560.000000	52.455966
1559.000000	52.435715
1558.000000	52.415829
1557.000000	52.392578
1556.000000	52.370208
1555.000000	52.345991
1554.000000	52.323554
1553.000000	52.300263
1552.000000	52.278666
1551.000000	52.255813
1550.000000	52.232012
1549.000000	52.207510
1548.000000	52.184504
1547.000000	52.164016
1546.000000	52.139300
1545.000000	52.111542
1544.000000	52.086854
1543.000000	52.061415
1542.000000	52.035340
1541.000000	52.009194
1540.000000	51.983045
1539.000000	51.953919
1538.000000	51.926914
1537.000000	51.904470
1536.000000	51.875136
1535.000000	51.848275
1534.000000	51.816813
1533.000000	51.783516
1532.000000	51.752949
1531.000000	51.721355
1530.000000	51.691593
1529.000000	51.663308
1528.000000	51.635898
1527.000000	51.604622
1526.000000	51.572375
1525.000000	51.541208
1524.000000	51.510076
1523.000000	51.479671
1522.000000	51.449296
1521.000000	51.415409
1520.000000	51.381754
1519.000000	51.350912
1518.000000	51.320636
1517.000000	51.286835
1516.000000	51.252327
1515.000000	51.215981
1514.000000	51.182041
1513.000000	51.147010
1512.000000	51.111009
1511.000000	51.075269
1510.000000	51.037927
1509.000000	51.001492
1508.000000	50.963503
1507.000000	50.926003
1506.000000	50.889470
1505.000000	50.852135
1504.000000	50.814318
1503.000000	50.773714
1502.000000	50.734719
1501.000000	50.695074
1500.000000	50.655717
1499.000000	50.618122
1498.000000	50.577830
1497.000000	50.537274
1496.000000	50.495200
1495.000000	50.452890
1494.000000	50.409886
1493.000000	50.367913
1492.000000	50.327922
1491.000000	50.285965
1490.000000	50.243868
1489.000000	50.200938
1488.000000	50.157421
1487.000000	50.113958
1486.000000	50.069958
1485.000000	50.026545
1484.000000	49.983379
1483.000000	49.939531
1482.000000	49.892755
1481.000000	49.845839
1480.000000	49.799754
1479.000000	49.753232
1478.000000	49.707052
1477.000000	49.659361
1476.000000	49.611672
1475.000000	49.563886
1474.000000	49.514542
1473.000000	49.466711
1472.000000	49.419612
1471.000000	49.370664
1470.000000	49.321130
1469.000000	49.271882
1468.000000	49.222438
1467.000000	49.172619
1466.000000	49.121137
1465.000000	49.069451
1464.000000	49.018562
1463.000000	48.965814
1462.000000	48.911313
1461.000000	48.856861
1460.000000	48.801305
1459.000000	48.746738
1458.000000	48.693669
1457.000000	48.639021
1456.000000	48.586132
1455.000000	48.533349
1454.000000	48.477837
1453.000000	48.423103
1452.000000	48.369254
1451.000000	48.313999
1450.000000	48.257240
1449.000000	48.200936
1448.000000	48.142673
1447.000000	48.084317
1446.000000	48.027518
1445.000000	47.970091
1444.000000	47.910288
1443.000000	47.851684
1442.000000	47.791710
1441.000000	47.730494
1440.000000	47.669443
1439.000000	47.608455
1438.000000	47.549604
1437.000000	47.491765
1436.000000	47.429420
1435.000000	47.366894
1434.000000	47.306262
1433.000000	47.244269
1432.000000	47.181456
1431.000000	47.119041
1430.000000	47.055916
1429.000000	46.991485
1428.000000	46.925454
1427.000000	46.861869
1426.000000	46.798355
1425.000000	46.735018
1424.000000	46.669675
1423.000000	46.605101
1422.000000	46.543412
1421.000000	46.476323
1420.000000	46.408806
1419.000000	46.344127
1418.000000	46.281081
1417.000000	46.218654
1416.000000	46.155987
1415.000000	46.097262
1414.000000	46.030949
1413.000000	45.968136
1412.000000	45.906219
1411.000000	45.845522
1410.000000	45.788437
1409.000000	45.736292
1408.000000	45.675337
1407.000000	45.618041
1406.000000	45.562286
1405.000000	45.510468
1404.000000	45.460868
1403.000000	45.405238
1402.000000	45.354782
1401.000000	45.307652
1400.000000	45.261491
1399.000000	45.216254
1398.000000	45.171212
1397.000000	45.128793
1396.000000	45.087408
1395.000000	45.043452
1394.000000	45.001909
1393.000000	44.957550
1392.000000	44.913611
1391.000000	44.872677
1390.000000	44.830778
1389.000000	44.787916
1388.000000	44.745762
1387.000000	44.705273
1386.000000	44.663706
1385.000000	44.619006
1384.000000	44.570684
1383.000000	44.520090
1382.000000	44.472358
1381.000000	44.411936
1380.000000	44.354888
1379.000000	44.298862
1378.000000	44.241640
1377.000000	44.186562
1376.000000	44.128305
1375.000000	44.066551
1374.000000	44.011875
1373.000000	43.959297
1372.000000	43.906411
1371.000000	43.846084
1370.000000	43.787912
1369.000000	43.727221
1368.000000	43.667223
1367.000000	43.606593
1366.000000	43.546028
1365.000000	43.485215
1364.000000	43.420787
1363.000000	43.356858
1362.000000	43.293240
1361.000000	43.230979
1360.000000	43.167633
1359.000000	43.101898
1358.000000	43.036112
1357.000000	42.971209
1356.000000	42.904687
1355.000000	42.841310
1354.000000	42.780266
1353.000000	42.717288
1352.000000	42.656963
1351.000000	42.595698
1350.000000	42.531120
1349.000000	42.472783
1348.000000	42.410406
1347.000000	42.349551
1346.000000	42.286531
1345.000000	42.225439
1344.000000	42.161530
1343.000000	42.102383
1342.000000	42.039710
1341.000000	41.976355
1340.000000	41.919203
1339.000000	41.857392
1338.000000	41.797402
1337.000000	41.735215
1336.000000	41.675428
1335.000000	41.612564
1334.000000	41.552283
1333.000000	41.491445
1332.000000	41.429506
1331.000000	41.371176
1330.000000	41.311840
1329.000000	41.253024
1328.000000	41.192274
1327.000000	41.131871
1326.000000	41.072339
1325.000000	41.014659
1324.000000	40.956055
1323.000000	40.898054
1322.000000	40.839782
1321.000000	40.780230
1320.000000	40.720162
1319.000000	40.660472
1318.000000	40.601223
1317.000000	40.543018
1316.000000	40.485106
1315.000000	40.428823
1314.000000	40.370759
1313.000000	40.313365
1312.000000	40.254853
1311.000000	40.199163
1310.000000	40.142052
1309.000000	40.085760
1308.000000	40.029315
1307.000000	39.971484
1306.000000	39.913322
1305.000000	39.854868
1304.000000	39.796829
1303.000000	39.739818
1302.000000	39.682263
1301.000000	39.626623
1300.000000	39.570461
1299.000000	39.514982
1298.000000	39.457855
1297.000000	39.404118
1296.000000	39.350667
1295.000000	39.295747
1294.000000	39.239220
1293.000000	39.184819
1292.000000	39.130422
1291.000000	39.076674
1290.000000	39.024609
1289.000000	38.970350
1288.000000	38.916246
1287.000000	38.863899
1286.000000	38.811942
1285.000000	38.760152
1284.000000	38.708850
1283.000000	38.658016
1282.000000	38.606919
1281.000000	38.556313
1280.000000	38.505513
1279.000000	38.454572
1278.000000	38.403985
1277.000000	38.352341
1276.000000	38.301268
1275.000000	38.250722
1274.000000	38.200508
1273.000000	38.150411
1272.000000	38.102387
1271.000000	38.054365
1270.000000	38.005184
1269.000000	37.955917
1268.000000	37.906737
1267.000000	37.857762
1266.000000	37.810789
1265.000000	37.763304
1264.000000	37.712811
1263.000000	37.664273
1262.000000	37.617872
1261.000000	37.569616
1260.000000	37.522373
1259.000000	37.476348
1258.000000	37.430626
1257.000000	37.385792
1256.000000	37.340784
1255.000000	37.295682
1254.000000	37.251190
1253.000000	37.207035
1252.000000	37.164144
1251.000000	37.121261
1250.000000	37.076529
1249.000000	37.033098
1248.000000	36.991530
1247.000000	36.948769
1246.000000	36.907125
1245.000000	36.866226
1244.000000	36.824717
1243.000000	36.782974
1242.000000	36.741766
1241.000000	36.701698
1240.000000	36.661793
1239.000000	36.624047
1238.000000	36.585801
1237.000000	36.546397
1236.000000	36.507943
1235.000000	36.467734
1234.000000	36.427813
1233.000000	36.389442
1232.000000	36.351638
1231.000000	36.314782
1230.000000	36.278236
1229.000000	36.241227
1228.000000	36.204404
1227.000000	36.167236
1226.000000	36.130528
1225.000000	36.094210
1224.000000	36.058209
1223.000000	36.022996
1222.000000	35.986827
1221.000000	35.952646
1220.000000	35.919282
1219.000000	35.885064
1218.000000	35.850300
1217.000000	35.815843
1216.000000	35.782131
1215.000000	35.749045
1214.000000	35.716083
1213.000000	35.684831
1212.000000	35.653168
1211.000000	35.619994
1210.000000	35.588119
1209.000000	35.557974
1208.000000	35.527958
1207.000000	35.497998
1206.000000	35.466816
1205.000000	35.435555
1204.000000	35.407416
1203.000000	35.379098
1202.000000	35.349104
1201.000000	35.319750
1200.000000	35.291565
1199.000000	35.264419
1198.000000	35.236986
1197.000000	35.210174
1196.000000	35.182412
1195.000000	35.156133
1194.000000	35.130017
1193.000000	35.104022
1192.000000	35.076525
1191.000000	35.051507
1190.000000	35.025574
1189.000000	35.002125
1188.000000	34.977186
1187.000000	34.952369
1186.000000	34.927381
1185.000000	34.904753
1184.000000	34.880624
1183.000000	34.856185
1182.000000	34.832096
1181.000000	34.810193
1180.000000	34.787446
1179.000000	34.766537
1178.000000	34.744025
1177.000000	34.723289
1176.000000	34.699598
1175.000000	34.678189
1174.000000	34.657947
1173.000000	34.638082
1172.000000	34.620414
1171.000000	34.600614
1170.000000	34.580132
1169.000000	34.560053
1168.000000	34.541619
1167.000000	34.524551
1166.000000	34.506496
1165.000000	34.488910
1164.000000	34.471222
1163.000000	34.453431
1162.000000	34.435498
1161.000000	34.418669
1160.000000	34.402361
1159.000000	34.387236
1158.000000	34.372366
1157.000000	34.356825
1156.000000	34.342403
1155.000000	34.328076
1154.000000	34.311013
1153.000000	34.298770
1152.000000	34.284560
1151.000000	34.271867
1150.000000	34.259212
1149.000000	34.245788
1148.000000	34.234602
1147.000000	34.222801
1146.000000	34.208906
1145.000000	34.195691
1144.000000	34.186960
1143.000000	34.174532
1142.000000	34.162960
1141.000000	34.152390
1140.000000	34.143626
1139.000000	34.134158
1138.000000	34.124401
1137.000000	34.116684
1136.000000	34.110278
1135.000000	34.100212
1134.000000	34.091481
